File: result/loop__02_0002_0100-0_C_Test_Si2/loop__02_0002_0100-0_C_Test_Si2.csv
#title,loop__02_0002_0100-0_C_Test_Si2.ras
#dimension,x,y
#x,2Theta-Theta,deg
#y,Intensity,counts
#legend,Cu K_alpha1,Cu K_alpha1_2
##acq_date,12/07/18 01:14:55

5.0000,2275,20.0000,640.0000
5.5000,1767,20.5000,590.0000
6.0000,1712,21.0000,617.0000
6.5000,1752,21.5000,490.0000
7.0000,1569,22.0000,499.0000
7.5000,1369,22.5000,507.0000
8.0000,1217,23.0000,434.0000
8.5000,1085,23.5000,440.0000
9.0000,1046,24.0000,441.0000
9.5000,1021,24.5000,442.0000
10.0000,963.0000,25.0000,381.0000
10.5000,972.0000,25.5000,379.0000
11.0000,948.0000,26.0000,415.0000
11.5000,900.0000,26.5000,509.0000
12.0000,887.0000,27.0000,330.0000
12.5000,827.0000,27.5000,430.0000
13.0000,843.0000,28.0000,447.0000
13.5000,803.0000,28.5000,870.0000
14.0000,760.0000,29.0000,312.0000
14.5000,780.0000,29.5000,336.0000
15.0000,733.0000,30.0000,268.0000
15.5000,776.0000,30.5000,247.0000
16.0000,716.0000,31.0000,254.0000
16.5000,667.0000,31.5000,258.0000
17.0000,650.0000,32.0000,246.0000
17.5000,653.0000,32.5000,221.0000
18.0000,690.0000,33.0000,206.0000
18.5000,609.0000,33.5000,202.0000
19.0000,589.0000,34.0000,193.0000
19.5000,550.0000,34.5000,203.0000
20.0000,521.0000,35.0000,156.0000
20.5000,615.0000,35.5000,176.0000
21.0000,512.0000,36.0000,167.0000
21.5000,515.0000,36.5000,130.0000
22.0000,497.0000,37.0000,144.0000
22.5000,455.0000,37.5000,145.0000
23.0000,445.0000,38.0000,141.0000
23.5000,414.0000,38.5000,127.0000
24.0000,446.0000,39.0000,113.0000
24.5000,388.0000,39.5000,112.0000
25.0000,384.0000,40.0000,97.0000
25.5000,398.0000,40.5000,101.0000
26.0000,392.0000,41.0000,100.0000
26.5000,523.0000,41.5000,98.0000
27.0000,327.0000,42.0000,97.0000
27.5000,464.0000,42.5000,108.0000
28.0000,414.0000,43.0000,111.0000
28.5000,827.0000,43.5000,105.0000
29.0000,325.0000,44.0000,95.0000
29.5000,295.0000,44.5000,86.0000
30.0000,251.0000,45.0000,112.0000
30.5000,240.0000,45.5000,93.0000
31.0000,248.0000,46.0000,97.0000
31.5000,226.0000,46.5000,113.0000
32.0000,215.0000,47.0000,530.0000
32.5000,207.0000,47.5000,262.0000
33.0000,214.0000,48.0000,103.0000
33.5000,199.0000,48.5000,94.0000
34.0000,167.0000,49.0000,80.0000
34.5000,188.0000,49.5000,82.0000
35.0000,158.0000,50.0000,95.0000
35.5000,155.0000,50.5000,68.0000
36.0000,165.0000,51.0000,70.0000
36.5000,146.0000,51.5000,68.0000
37.0000,133.0000,52.0000,64.0000
37.5000,127.0000,52.5000,62.0000
38.0000,129.0000,53.0000,68.0000
38.5000,125.0000,53.5000,72.0000
39.0000,127.0000,54.0000,87.0000
39.5000,112.0000,54.5000,70.0000
40.0000,103.0000,55.0000,74.0000
40.5000,114.0000,55.5000,108.0000
41.0000,106.0000,56.0000,8748
41.5000,91.0000,56.5000,99.0000
42.0000,101.0000,57.0000,82.0000
42.5000,97.0000,57.5000,48.0000
43.0000,89.0000,58.0000,66.0000
43.5000,81.0000,58.5000,48.0000
44.0000,89.0000,59.0000,49.0000
44.5000,87.0000,59.5000,50.0000
45.0000,102.0000,60.0000,44.0000
45.5000,99.0000,60.5000,64.0000
46.0000,93.0000,61.0000,52.0000
46.5000,109.0000,61.5000,50.0000
47.0000,575.0000,62.0000,37.0000
47.5000,291.0000,62.5000,43.0000
48.0000,110.0000,63.0000,51.0000
48.5000,93.0000,63.5000,50.0000
49.0000,74.0000,64.0000,56.0000
49.5000,84.0000,64.5000,47.0000
50.0000,76.0000,65.0000,45.0000
50.5000,65.0000,65.5000,43.0000
51.0000,79.0000,66.0000,42.0000
51.5000,60.0000,66.5000,40.0000
52.0000,76.0000,67.0000,46.0000
52.5000,77.0000,67.5000,55.0000
53.0000,66.0000,68.0000,61.0000
53.5000,77.0000,68.5000,70.0000
54.0000,72.0000,69.0000,2021
54.5000,82.0000,69.5000,58.0000
55.0000,88.0000,70.0000,42.0000
55.5000,112.0000,70.5000,54.0000
56.0000,8899,71.0000,46.0000
56.5000,95.0000,71.5000,38.0000
57.0000,78.0000,72.0000,48.0000
57.5000,58.0000,72.5000,47.0000
58.0000,61.0000,73.0000,58.0000
58.5000,67.0000,73.5000,35.0000
59.0000,57.0000,74.0000,49.0000
59.5000,54.0000,74.5000,43.0000
60.0000,58.0000,75.0000,53.0000
60.5000,59.0000,75.5000,62.0000
61.0000,50.0000,76.0000,125.0000
61.5000,46.0000,76.5000,185.0000
62.0000,45.0000,77.0000,60.0000
62.5000,58.0000,77.5000,46.0000
63.0000,50.0000,78.0000,46.0000
63.5000,44.0000,78.5000,43.0000
64.0000,39.0000,79.0000,51.0000
64.5000,49.0000,79.5000,51.0000
65.0000,46.0000,80.0000,46.0000
65.5000,49.0000,80.5000,46.0000
66.0000,39.0000,81.0000,50.0000
66.5000,44.0000,81.5000,46.0000
67.0000,51.0000,82.0000,52.0000
67.5000,39.0000,82.5000,49.0000
68.0000,43.0000,83.0000,40.0000
68.5000,59.0000,83.5000,33.0000
69.0000,2010,84.0000,39.0000
69.5000,59.0000,84.5000,36.0000
70.0000,48.0000,85.0000,48.0000
70.5000,42.0000,85.5000,49.0000
71.0000,57.0000,86.0000,51.0000
71.5000,53.0000,86.5000,50.0000
72.0000,49.0000,87.0000,77.0000
72.5000,40.0000,87.5000,114.0000
73.0000,33.0000,88.0000,2989
73.5000,44.0000,88.5000,81.0000
74.0000,53.0000,89.0000,61.0000
74.5000,58.0000,89.5000,49.0000
75.0000,58.0000,90.0000,49.0000
75.5000,54.0000,,
76.0000,151.0000,,
76.5000,160.0000,,
77.0000,55.0000,,
77.5000,55.0000,,
78.0000,43.0000,,
78.5000,53.0000,,
79.0000,37.0000,,
79.5000,53.0000,,
80.0000,41.0000,,
80.5000,44.0000,,
81.0000,45.0000,,
81.5000,41.0000,,
82.0000,47.0000,,
82.5000,51.0000,,
83.0000,53.0000,,
83.5000,50.0000,,
84.0000,45.0000,,
84.5000,51.0000,,
85.0000,43.0000,,
85.5000,50.0000,,
86.0000,51.0000,,
86.5000,63.0000,,
87.0000,57.0000,,
87.5000,102.0000,,
88.0000,2893,,
88.5000,79.0000,,
89.0000,53.0000,,
89.5000,46.0000,,
90.0000,49.0000,,
90.5000,58.0000,,
91.0000,53.0000,,
91.5000,43.0000,,
92.0000,37.0000,,
92.5000,43.0000,,
93.0000,54.0000,,
93.5000,42.0000,,
94.0000,59.0000,,
94.5000,108.0000,,
95.0000,356.0000,,
95.5000,66.0000,,
96.0000,44.0000,,
96.5000,52.0000,,
97.0000,47.0000,,
97.5000,48.0000,,
98.0000,37.0000,,
98.5000,36.0000,,
99.0000,40.0000,,
99.5000,43.0000,,
100.0000,49.0000,,
100.5000,42.0000,,
101.0000,39.0000,,
101.5000,43.0000,,
102.0000,44.0000,,
102.5000,46.0000,,
103.0000,41.0000,,
103.5000,39.0000,,
104.0000,49.0000,,
104.5000,46.0000,,
105.0000,52.0000,,
105.5000,40.0000,,
106.0000,61.0000,,
106.5000,459.0000,,
107.0000,82.0000,,
107.5000,47.0000,,
108.0000,53.0000,,
108.5000,57.0000,,
109.0000,52.0000,,
109.5000,50.0000,,
110.0000,53.0000,,
110.5000,48.0000,,
111.0000,50.0000,,
111.5000,34.0000,,
112.0000,55.0000,,
112.5000,60.0000,,
113.0000,73.0000,,
113.5000,97.0000,,
114.0000,3404,,
114.5000,84.0000,,
115.0000,76.0000,,
115.5000,61.0000,,
116.0000,53.0000,,
116.5000,59.0000,,
117.0000,64.0000,,
117.5000,52.0000,,
118.0000,51.0000,,
118.5000,48.0000,,
119.0000,50.0000,,
119.5000,45.0000,,
120.0000,47.0000,,
120.5000,54.0000,,
121.0000,56.0000,,
121.5000,52.0000,,
122.0000,51.0000,,
122.5000,51.0000,,
123.0000,49.0000,,
123.5000,54.0000,,
124.0000,36.0000,,
124.5000,47.0000,,
125.0000,52.0000,,
125.5000,55.0000,,
126.0000,64.0000,,
126.5000,73.0000,,
127.0000,177.0000,,
127.5000,1995,,
128.0000,110.0000,,
128.5000,78.0000,,
129.0000,68.0000,,
129.5000,57.0000,,
130.0000,55.0000,,
130.5000,52.0000,,
131.0000,61.0000,,
131.5000,53.0000,,
132.0000,56.0000,,
132.5000,58.0000,,
133.0000,61.0000,,
133.5000,67.0000,,
134.0000,51.0000,,
134.5000,59.0000,,
135.0000,66.0000,,
135.5000,49.0000,,
136.0000,93.0000,,
136.5000,228.0000,,
137.0000,302.0000,,
137.5000,100.0000,,
138.0000,70.0000,,
138.5000,54.0000,,
139.0000,79.0000,,
139.5000,59.0000,,
140.0000,57.0000,,
140.5000,80.0000,,
141.0000,73.0000,,
141.5000,69.0000,,
142.0000,69.0000,,
142.5000,50.0000,,
143.0000,59.0000,,
143.5000,54.0000,,
144.0000,56.0000,,
144.5000,64.0000,,
145.0000,71.0000,,
145.5000,72.0000,,
146.0000,72.0000,,
146.5000,61.0000,,
147.0000,79.0000,,
147.5000,61.0000,,
148.0000,71.0000,,
148.5000,73.0000,,
149.0000,53.0000,,
149.5000,81.0000,,
150.0000,80.0000,,