File: result/XRD_RIGAKU2 - コピー/XRD_RIGAKU2 - コピー.csv
#title,XRD_RIGAKU2 - ÉRÉsÅ[.ras
#dimension,x,y
#x,2Theta-Theta,deg
#y,Intensity,counts
#legend,Cu K_alpha
##acq_date,11/21/2017 08:37:42

25.0000,13.0000
25.1200,6.0000
25.2400,11.0000
25.3600,9.0000
25.4800,5.0000
25.6000,13.0000
25.7200,11.0000
25.8400,5.0000
25.9600,15.0000
26.0800,6.0000
26.2000,8.0000
26.3200,12.0000
26.4400,6.0000
26.5600,5.0000
26.6800,5.0000
26.8000,7.0000
26.9200,7.0000
27.0400,7.0000
27.1600,10.0000
27.2800,10.0000
27.4000,19.0000
27.5200,20.0000
27.6400,14.0000
27.7600,19.0000
27.8800,13.0000
28.0000,23.0000
28.1200,38.0000
28.2400,120.0000
28.3600,2114
28.4800,2100
28.6000,101.0000
28.7200,37.0000
28.8400,21.0000
28.9600,22.0000
29.0800,7.0000
29.2000,7.0000
29.3200,11.0000
29.4400,10.0000
29.5600,8.0000
29.6800,7.0000
29.8000,8.0000
29.9200,5.0000
30.0400,6.0000
30.1600,7.0000
30.2800,6.0000
30.4000,5.0000
30.5200,3.0000
30.6400,5.0000
30.7600,5.0000
30.8800,2.0000
31.0000,8.0000
31.1200,4.0000
31.2400,4.0000
31.3600,5.0000
31.4800,4.0000
31.6000,6.0000
31.7200,6.0000
31.8400,7.0000
31.9600,4.0000
32.0800,6.0000
32.2000,5.0000
32.3200,7.0000
32.4400,4.0000
32.5600,3.0000
32.6800,7.0000
32.8000,4.0000
32.9200,7.0000
33.0400,4.0000
33.1600,3.0000
33.2800,8.0000
33.4000,3.0000
33.5200,6.0000
33.6400,2.0000
33.7600,1.0000
33.8800,4.0000
34.0000,3.0000
34.1200,4.0000
34.2400,2.0000
34.3600,5.0000
34.4800,5.0000
34.6000,5.0000
34.7200,3.0000
34.8400,4.0000
34.9600,1.0000
35.0800,0.0000
35.2000,2.0000
35.3200,4.0000
35.4400,3.0000
35.5600,2.0000
35.6800,9.0000
35.8000,4.0000
35.9200,3.0000
36.0400,4.0000
36.1600,5.0000
36.2800,5.0000
36.4000,5.0000
36.5200,2.0000
36.6400,3.0000
36.7600,8.0000
36.8800,7.0000
37.0000,4.0000
37.1200,2.0000
37.2400,6.0000
37.3600,3.0000
37.4800,5.0000
37.6000,5.0000
37.7200,4.0000
37.8400,3.0000
37.9600,3.0000
38.0800,2.0000
38.2000,5.0000
38.3200,4.0000
38.4400,6.0000
38.5600,6.0000
38.6800,1.0000
38.8000,2.0000
38.9200,6.0000
39.0400,4.0000
39.1600,2.0000
39.2800,9.0000
39.4000,1.0000
39.5200,8.0000
39.6400,3.0000
39.7600,4.0000
39.8800,5.0000
40.0000,3.0000
40.1200,5.0000
40.2400,2.0000
40.3600,5.0000
40.4800,1.0000
40.6000,4.0000
40.7200,2.0000
40.8400,3.0000
40.9600,6.0000
41.0800,4.0000
41.2000,1.0000
41.3200,1.0000
41.4400,2.0000
41.5600,3.0000
41.6800,7.0000
41.8000,1.0000
41.9200,4.0000
42.0400,5.0000
42.1600,2.0000
42.2800,4.0000
42.4000,8.0000
42.5200,4.0000
42.6400,1.0000
42.7600,4.0000
42.8800,2.0000
43.0000,7.0000
43.1200,0.0000
43.2400,9.0000
43.3600,4.0000
43.4800,6.0000
43.6000,3.0000
43.7200,4.0000
43.8400,4.0000
43.9600,2.0000
44.0800,4.0000
44.2000,4.0000
44.3200,3.0000
44.4400,6.0000
44.5600,6.0000
44.6800,5.0000
44.8000,4.0000
44.9200,4.0000
45.0400,9.0000
45.1600,2.0000
45.2800,3.0000
45.4000,2.0000
45.5200,3.0000
45.6400,8.0000
45.7600,7.0000
45.8800,6.0000
46.0000,15.0000
46.1200,5.0000
46.2400,11.0000
46.3600,16.0000
46.4800,10.0000
46.6000,13.0000
46.7200,13.0000
46.8400,26.0000
46.9600,39.0000
47.0800,95.0000
47.2000,716.0000
47.3200,633.0000
47.4400,253.0000
47.5600,33.0000
47.6800,22.0000
47.8000,17.0000
47.9200,14.0000
48.0400,9.0000
48.1600,8.0000
48.2800,7.0000
48.4000,4.0000
48.5200,3.0000
48.6400,12.0000
48.7600,8.0000
48.8800,4.0000
49.0000,4.0000
49.1200,3.0000
49.2400,3.0000
49.3600,4.0000
49.4800,4.0000
49.6000,5.0000
49.7200,4.0000
49.8400,2.0000
49.9600,2.0000
50.0800,7.0000
50.2000,7.0000
50.3200,9.0000
50.4400,3.0000
50.5600,4.0000
50.6800,3.0000
50.8000,8.0000
50.9200,7.0000
51.0400,5.0000
51.1600,3.0000
51.2800,5.0000
51.4000,6.0000
51.5200,6.0000
51.6400,2.0000
51.7600,7.0000
51.8800,10.0000
52.0000,3.0000
52.1200,3.0000
52.2400,4.0000
52.3600,4.0000
52.4800,3.0000
52.6000,4.0000
52.7200,5.0000
52.8400,5.0000
52.9600,4.0000
53.0800,2.0000
53.2000,4.0000
53.3200,6.0000
53.4400,5.0000
53.5600,7.0000
53.6800,1.0000
53.8000,5.0000
53.9200,4.0000
54.0400,4.0000
54.1600,4.0000
54.2800,6.0000
54.4000,4.0000
54.5200,2.0000
54.6400,4.0000
54.7600,10.0000
54.8800,8.0000
55.0000,10.0000
55.1200,8.0000
55.2400,4.0000
55.3600,7.0000
55.4800,7.0000
55.6000,14.0000
55.7200,16.0000
55.8400,32.0000
55.9600,144.0000
56.0800,1204
56.2000,440.0000
56.3200,102.0000
56.4400,22.0000
56.5600,6.0000
56.6800,9.0000
56.8000,9.0000
56.9200,11.0000
57.0400,3.0000
57.1600,4.0000
57.2800,6.0000
57.4000,2.0000
57.5200,4.0000
57.6400,3.0000
57.7600,2.0000
57.8800,4.0000
58.0000,5.0000
58.1200,2.0000
58.2400,3.0000
58.3600,3.0000
58.4800,0.0000
58.6000,6.0000
58.7200,1.0000
58.8400,2.0000
58.9600,2.0000
59.0800,3.0000
59.2000,2.0000
59.3200,2.0000
59.4400,2.0000
59.5600,4.0000
59.6800,5.0000
59.8000,2.0000
59.9200,2.0000
60.0000,2.0000